Thorlabs Shack-Hartmann Wavefront Sensor

Model                  ,       WFS150-7AR
Serial Number          ,       M00451204

Date MM-DD-YYYY        ,       06-28-2023
Time HH:MM:SS          ,       15:46:17


*** CAMERA ***
Camera Type            ,       Thorlabs DCU224M
Camera SN              ,       4103134643
Resolution X           ,       768
Resolution Y           ,       768
Exposure Time [ms]     ,      12.489
Master Gain            ,       4.102
Averages               ,       3
Average Type           ,       Normal


*** BEAM ***
Beam Center X [mm]     ,      -0.515
Beam Center Y [mm]     ,       0.966
Beam Diameter X [mm]   ,       4.418
Beam Diameter Y [mm]   ,       2.283


*** PUPIL ***
Circular               ,       0
Use Beam Centroid      ,       1
Use Beam Dia           ,       0
Wavefront Calc In Pupil,       0
Pupil Diameter X [mm]  ,       4.150
Pupil Diameter Y [mm]  ,       4.150
Pupil Center X [mm]    ,      -0.515
Pupil Center Y [mm]    ,       0.966


*** ZERNIKE FIT ***
Zernike Orders Auto    ,       0
Zernike Orders         ,       4
Zernike Modes          ,       15
Unit                   ,       µm
Index  Order  Frequency  Coefficient
   1,     0,     0,       -1.628
   2,     1,    -1,       17.198
   3,     1,     1,        0.193
   4,     2,    -2,       -0.463
   5,     2,     0,       -6.786
   6,     2,     2,       -9.751
   7,     3,    -3,        2.878
   8,     3,    -1,       -3.018
   9,     3,     1,       -0.747
  10,     3,     3,       -0.427
  11,     4,    -4,        0.570
  12,     4,    -2,       -0.034
  13,     4,     0,        1.543
  14,     4,     2,       -1.294
  15,     4,     4,        1.766

Fit Error Mean [arcmin]  ,   6.075e-10
Fit Error StdDev [arcmin],   3.934e-03


*** RMS WAVEFRONT VARIATIONS ***
Unit                   ,       µm
Order  Variation
   0,      1.628
   1,     17.199
   2,     11.889
   3,      4.258
   4,      2.738


*** FOURIER NOTATION ***
Fourier Order          ,       2
Fourier M              ,      10.918
Fourier J0             ,      11.094
Fourier J45            ,       0.526


*** OPTOMETRIC NOTATION ***
Optometric Sphere [dpt],      22.025
Optometric Cyl. [dpt]  ,     -22.212
Optometric Axis [deg]  ,       1.358

Radius of Curvature[mm],      91.588


*** WAVEFRONT ***
Reference              ,       Internal Reference
Unit                   ,       µm
Wavelength [nm]        ,        633.000
Type                   ,       Difference
Calculation Area       ,       entire area
PV                     ,      12.774
RMS                    ,       3.276
RMS weighted           ,       2.787
Spots X                ,       21
Spots Y                ,       21
y / x [mm],    -1.500,    -1.350,    -1.200,    -1.050,    -0.900,    -0.750,    -0.600,    -0.450,    -0.300,    -0.150,     0.000,     0.150,     0.300,     0.450,     0.600,     0.750,     0.900,     1.050,     1.200,     1.350,     1.500,
     1.500,    -0.996,     1.088,     2.879,     4.246,     5.140,     5.642,     5.877,     5.924,     5.800,     5.546,     5.218,     4.775,     4.466,     4.268,     4.175,     4.183,     4.198,     4.112,     3.890,     3.482,       NaN,
     1.350,    -3.069,    -0.962,     1.007,     2.629,     3.810,     4.589,     5.044,     5.270,     5.280,     5.130,     4.917,     4.573,     4.311,     4.149,     4.107,     4.119,     4.057,     3.859,     3.481,     2.855,       NaN,
     1.200,    -4.424,    -2.526,    -0.618,     1.107,     2.471,     3.422,     4.041,     4.417,     4.554,     4.506,     4.390,     4.112,     3.910,     3.806,     3.819,     3.850,     3.742,     3.483,     3.010,     2.238,       NaN,
     1.050,    -5.590,    -4.006,    -2.277,    -0.570,     0.923,     2.052,     2.851,     3.398,     3.677,     3.762,     3.750,     3.527,     3.423,     3.403,     3.448,     3.462,     3.313,     3.007,     2.477,     1.637,       NaN,
     0.900,    -6.488,    -5.316,    -3.882,    -2.284,    -0.714,     0.600,     1.606,     2.340,     2.787,     2.994,     3.096,     2.969,     2.967,     3.023,     3.084,     3.047,     2.851,     2.504,     1.916,     1.070,       NaN,
     0.750,    -6.850,    -6.043,    -5.001,    -3.724,    -2.290,    -0.909,     0.279,     1.184,     1.838,     2.209,     2.423,     2.490,     2.632,     2.742,     2.784,     2.687,     2.454,     2.092,     1.501,     0.701,       NaN,
     0.600,    -6.774,    -6.190,    -5.454,    -4.501,    -3.311,    -2.076,    -0.915,     0.042,     0.845,     1.396,     1.753,     2.074,     2.364,     2.464,     2.434,     2.296,     2.068,     1.730,     1.219,     0.527,       NaN,
     0.450,    -6.558,    -6.109,    -5.557,    -4.842,    -3.923,    -2.932,    -1.925,    -0.969,    -0.095,     0.585,     1.141,     1.689,     1.985,     1.969,     1.849,     1.658,     1.418,     1.106,     0.683,     0.112,       NaN,
     0.300,    -6.277,    -5.977,    -5.541,    -4.952,    -4.203,    -3.383,    -2.527,    -1.649,    -0.758,    -0.024,     0.642,     1.198,     1.353,     1.243,     1.093,     0.892,     0.639,     0.359,     0.016,    -0.456,       NaN,
     0.150,    -5.938,    -5.734,    -5.400,    -4.905,    -4.249,    -3.510,    -2.707,    -1.887,    -1.031,    -0.299,     0.302,     0.711,     0.751,     0.618,     0.504,     0.403,     0.265,     0.095,    -0.151,    -0.514,       NaN,
     0.000,    -5.629,    -5.475,    -5.169,    -4.687,    -4.088,    -3.401,    -2.625,    -1.802,    -0.980,    -0.358,     0.000,     0.165,     0.228,     0.249,     0.231,     0.228,     0.223,     0.192,     0.085,    -0.126,       NaN,
    -0.150,    -5.388,    -5.315,    -5.002,    -4.458,    -3.834,    -3.122,    -2.311,    -1.526,    -0.939,    -0.602,    -0.313,    -0.185,    -0.051,     0.079,     0.197,     0.267,     0.284,     0.269,     0.256,       NaN,       NaN,
    -0.300,    -5.297,    -5.222,    -4.840,    -4.179,    -3.457,    -2.741,    -2.161,    -1.651,    -1.291,    -1.101,    -0.646,       NaN,       NaN,       NaN,       NaN,       NaN,       NaN,       NaN,       NaN,       NaN,       NaN,
    -0.450,       NaN,       NaN,       NaN,       NaN,       NaN,       NaN,       NaN,       NaN,       NaN,       NaN,    -1.111,       NaN,       NaN,       NaN,       NaN,       NaN,       NaN,       NaN,       NaN,       NaN,       NaN,
    -0.600,       NaN,       NaN,       NaN,       NaN,       NaN,       NaN,       NaN,       NaN,       NaN,       NaN,       NaN,       NaN,       NaN,       NaN,       NaN,       NaN,       NaN,       NaN,       NaN,       NaN,       NaN,
    -0.750,       NaN,       NaN,       NaN,       NaN,       NaN,       NaN,       NaN,       NaN,       NaN,       NaN,       NaN,       NaN,       NaN,       NaN,       NaN,       NaN,       NaN,       NaN,       NaN,       NaN,       NaN,
    -0.900,       NaN,       NaN,       NaN,       NaN,       NaN,       NaN,       NaN,       NaN,       NaN,       NaN,       NaN,       NaN,       NaN,       NaN,       NaN,       NaN,       NaN,       NaN,       NaN,       NaN,       NaN,
    -1.050,       NaN,       NaN,       NaN,       NaN,       NaN,       NaN,       NaN,       NaN,       NaN,       NaN,       NaN,       NaN,       NaN,       NaN,       NaN,       NaN,       NaN,       NaN,       NaN,       NaN,       NaN,
    -1.200,       NaN,       NaN,       NaN,       NaN,       NaN,       NaN,       NaN,       NaN,       NaN,       NaN,       NaN,       NaN,       NaN,       NaN,       NaN,       NaN,       NaN,       NaN,       NaN,       NaN,       NaN,
    -1.350,       NaN,       NaN,       NaN,       NaN,       NaN,       NaN,       NaN,       NaN,       NaN,       NaN,       NaN,       NaN,       NaN,       NaN,       NaN,       NaN,       NaN,       NaN,       NaN,       NaN,       NaN,
    -1.500,       NaN,       NaN,       NaN,       NaN,       NaN,       NaN,       NaN,       NaN,       NaN,       NaN,       NaN,       NaN,       NaN,       NaN,       NaN,       NaN,       NaN,       NaN,       NaN,       NaN,       NaN,
