Thorlabs Shack-Hartmann Wavefront Sensor

Model                  ,       WFS150-7AR
Serial Number          ,       M00451204

Date MM-DD-YYYY        ,       06-28-2023
Time HH:MM:SS          ,       14:11:11


*** CAMERA ***
Camera Type            ,       Thorlabs DCU224M
Camera SN              ,       4103134643
Resolution X           ,       768
Resolution Y           ,       768
Exposure Time [ms]     ,      12.489
Master Gain            ,       4.102
Averages               ,       3
Average Type           ,       Normal


*** BEAM ***
Beam Center X [mm]     ,       0.084
Beam Center Y [mm]     ,       0.146
Beam Diameter X [mm]   ,       3.997
Beam Diameter Y [mm]   ,       3.671


*** PUPIL ***
Circular               ,       0
Use Beam Centroid      ,       1
Use Beam Dia           ,       0
Wavefront Calc In Pupil,       0
Pupil Diameter X [mm]  ,       4.150
Pupil Diameter Y [mm]  ,       4.150
Pupil Center X [mm]    ,       0.084
Pupil Center Y [mm]    ,       0.146


*** ZERNIKE FIT ***
Zernike Orders Auto    ,       0
Zernike Orders         ,       4
Zernike Modes          ,       15
Unit                   ,       µm
Index  Order  Frequency  Coefficient
   1,     0,     0,       -2.414
   2,     1,    -1,        9.074
   3,     1,     1,        0.352
   4,     2,    -2,       -0.317
   5,     2,     0,       -9.120
   6,     2,     2,        1.089
   7,     3,    -3,       -0.055
   8,     3,    -1,        0.550
   9,     3,     1,       -0.018
  10,     3,     3,        0.617
  11,     4,    -4,        0.177
  12,     4,    -2,        0.123
  13,     4,     0,       -0.051
  14,     4,     2,       -0.149
  15,     4,     4,        0.141

Fit Error Mean [arcmin]  ,   1.717e-10
Fit Error StdDev [arcmin],   1.138e-03


*** RMS WAVEFRONT VARIATIONS ***
Unit                   ,       µm
Order  Variation
   0,      2.414
   1,      9.081
   2,      9.190
   3,      0.829
   4,      0.302


*** FOURIER NOTATION ***
Fourier Order          ,       2
Fourier M              ,      14.673
Fourier J0             ,      -1.239
Fourier J45            ,       0.360


*** OPTOMETRIC NOTATION ***
Optometric Sphere [dpt],      15.963
Optometric Cyl. [dpt]  ,      -2.581
Optometric Axis [deg]  ,      81.898

Radius of Curvature[mm],      68.154


*** WAVEFRONT ***
Reference              ,       Internal Reference
Unit                   ,       µm
Wavelength [nm]        ,        633.000
Type                   ,       Difference
Calculation Area       ,       entire area
PV                     ,       3.422
RMS                    ,       0.730
RMS weighted           ,       0.677
Spots X                ,       21
Spots Y                ,       21
y / x [mm],    -1.500,    -1.350,    -1.200,    -1.050,    -0.900,    -0.750,    -0.600,    -0.450,    -0.300,    -0.150,     0.000,     0.150,     0.300,     0.450,     0.600,     0.750,     0.900,     1.050,     1.200,     1.350,     1.500,
     1.500,       NaN,     0.767,     1.010,     1.274,     1.561,     1.846,     2.119,     2.368,     2.577,     2.730,     2.813,     2.715,     2.548,     2.321,     2.041,     1.698,     1.324,     0.959,     0.637,     0.399,     0.289,
     1.350,       NaN,     0.494,     0.738,     1.016,     1.306,     1.601,     1.891,     2.177,     2.430,     2.652,     2.803,     2.604,     2.352,     2.050,     1.691,     1.304,     0.887,     0.486,     0.147,    -0.112,    -0.268,
     1.200,     0.054,     0.255,     0.497,     0.777,     1.063,     1.359,     1.658,     1.960,     2.258,     2.540,     2.740,     2.490,     2.191,     1.849,     1.463,     1.071,     0.654,     0.267,    -0.059,    -0.308,    -0.486,
     1.050,    -0.186,    -0.001,     0.221,     0.483,     0.752,     1.035,     1.330,     1.627,     1.947,     2.256,     2.489,     2.243,     1.920,     1.573,     1.215,     0.867,     0.503,     0.176,    -0.095,    -0.321,    -0.518,
     0.900,    -0.360,    -0.209,    -0.021,     0.197,     0.444,     0.694,     0.965,     1.231,     1.526,     1.822,     2.038,     1.825,     1.550,     1.252,     0.955,     0.688,     0.432,     0.189,    -0.030,    -0.230,    -0.450,
     0.750,    -0.437,    -0.324,    -0.175,    -0.016,     0.185,     0.394,     0.624,     0.844,     1.087,     1.324,     1.494,     1.318,     1.107,     0.884,     0.679,     0.512,     0.359,     0.233,     0.093,    -0.079,    -0.277,
     0.600,    -0.436,    -0.348,    -0.240,    -0.134,     0.002,     0.163,     0.344,     0.516,     0.695,     0.851,     0.965,     0.823,     0.649,     0.515,     0.396,     0.309,     0.245,     0.219,     0.167,     0.068,    -0.040,
     0.450,    -0.404,    -0.319,    -0.240,    -0.179,    -0.095,     0.016,     0.143,     0.269,     0.379,     0.470,     0.547,     0.420,     0.279,     0.192,     0.118,     0.083,     0.081,     0.110,     0.133,     0.138,     0.145,
     0.300,    -0.376,    -0.296,    -0.221,    -0.186,    -0.137,    -0.061,     0.028,     0.113,     0.167,     0.207,     0.249,     0.142,     0.042,    -0.032,    -0.069,    -0.072,    -0.056,    -0.009,     0.051,     0.115,     0.200,
     0.150,    -0.362,    -0.301,    -0.225,    -0.199,    -0.160,    -0.099,    -0.026,     0.027,     0.050,     0.054,     0.070,     0.004,    -0.058,    -0.108,    -0.138,    -0.139,    -0.131,    -0.104,    -0.058,     0.000,     0.090,
     0.000,    -0.334,    -0.311,    -0.268,    -0.236,    -0.185,    -0.117,    -0.051,    -0.007,     0.007,     0.006,     0.000,    -0.020,    -0.054,    -0.096,    -0.136,    -0.168,    -0.191,    -0.209,    -0.217,    -0.198,    -0.143,
    -0.150,    -0.313,    -0.343,    -0.345,    -0.294,    -0.222,    -0.141,    -0.068,    -0.018,     0.009,     0.024,     0.029,     0.030,     0.019,    -0.014,    -0.063,    -0.128,    -0.191,    -0.257,    -0.329,    -0.377,    -0.376,
    -0.300,    -0.352,    -0.424,    -0.421,    -0.352,    -0.258,    -0.163,    -0.080,    -0.017,     0.031,     0.069,     0.096,     0.105,     0.110,     0.092,     0.052,    -0.022,    -0.116,    -0.226,    -0.344,    -0.454,    -0.526,
    -0.450,    -0.411,    -0.500,    -0.495,    -0.418,    -0.303,    -0.187,    -0.089,    -0.008,     0.066,     0.126,     0.169,     0.197,     0.214,     0.211,     0.181,     0.112,     0.015,    -0.114,    -0.264,    -0.425,    -0.565,
    -0.600,    -0.495,    -0.575,    -0.559,    -0.460,    -0.333,    -0.211,    -0.097,     0.008,     0.105,     0.191,     0.250,     0.288,     0.320,     0.331,     0.312,     0.258,     0.176,     0.049,    -0.116,    -0.304,    -0.490,
    -0.750,    -0.558,    -0.609,    -0.541,    -0.327,    -0.350,    -0.220,    -0.088,     0.035,     0.149,     0.246,     0.321,     0.374,     0.420,     0.446,     0.443,     0.405,     0.333,     0.221,     0.059,    -0.137,    -0.355,
    -0.900,    -0.573,    -0.577,    -0.447,    -0.238,    -0.344,    -0.190,    -0.050,     0.078,     0.193,     0.288,     0.370,     0.439,     0.499,     0.546,     0.563,     0.542,     0.481,     0.381,     0.228,     0.027,    -0.204,
    -1.050,    -0.576,    -0.555,    -0.442,    -0.323,    -0.276,    -0.101,     0.031,     0.146,     0.253,     0.336,     0.396,     0.459,     0.537,     0.603,     0.646,     0.657,     0.615,     0.528,     0.382,     0.181,    -0.060,
    -1.200,       NaN,    -0.530,    -0.411,    -0.276,    -0.143,     0.030,     0.141,     0.219,     0.293,     0.360,     0.396,     0.440,     0.523,     0.607,     0.681,     0.724,     0.720,     0.654,     0.522,     0.335,     0.089,
    -1.350,       NaN,    -0.475,    -0.305,    -0.109,     0.063,     0.202,     0.271,     0.313,     0.346,     0.371,     0.370,     0.395,     0.467,     0.559,     0.659,     0.737,     0.779,     0.754,     0.658,     0.506,     0.287,
    -1.500,       NaN,       NaN,     0.175,     0.368,     0.477,     0.518,     0.497,     0.466,     0.427,     0.386,     0.326,     0.309,     0.369,     0.465,     0.571,     0.675,     0.764,     0.794,     0.763,     0.674,     0.512,
